 ** Au L=66nm d=20nm rod water
1 2 3 0 0 = columns for wave, Re(n), Im(n), eps1, eps2
wave(um) Re(n)  	Im(n)    		eps1  	 eps2
0.29712	1.10558	1.45855
0.29789	1.10541	1.45917
0.29866	1.10517	1.45978
0.29943	1.10485	1.46035
0.3002	1.10449	1.4609
0.30097	1.10408	1.46141
0.30174	1.10367	1.46189
0.30251	1.10325	1.46234
0.30328	1.10284	1.46274
0.30405	1.10246	1.46311
0.30482	1.10213	1.46342
0.3056	1.10187	1.4637
0.30637	1.10168	1.46392
0.30714	1.10159	1.46408
0.30791	1.10159	1.4642
0.30868	1.10165	1.46427
0.30945	1.10177	1.46428
0.31022	1.10191	1.46425
0.31099	1.10207	1.46417
0.31176	1.10222	1.46405
0.31253	1.10234	1.46388
0.3133	1.10241	1.46367
0.31407	1.10242	1.46341
0.31484	1.10235	1.46311
0.31561	1.10217	1.46278
0.31638	1.10188	1.4624
0.31715	1.10144	1.46199
0.31792	1.10083	1.46154
0.31869	1.10005	1.46106
0.31946	1.09907	1.46054
0.32023	1.09787	1.45998
0.321	1.09645	1.45939
0.32177	1.09482	1.45877
0.32254	1.09303	1.45811
0.32331	1.09106	1.4574
0.32408	1.08895	1.45666
0.32485	1.0867	1.45587
0.32562	1.08435	1.45504
0.32639	1.08191	1.45416
0.32716	1.07939	1.45322
0.32793	1.07682	1.45223
0.3287	1.07421	1.45119
0.32947	1.07158	1.45009
0.33024	1.06894	1.44893
0.33101	1.06633	1.4477
0.33178	1.06374	1.44641
0.33255	1.06121	1.44506
0.33332	1.05875	1.44364
0.33408	1.05638	1.44214
0.33485	1.05412	1.44059
0.33562	1.05199	1.43895
0.33639	1.04998	1.43723
0.33716	1.0481	1.43545
0.33793	1.0463	1.4336
0.3387	1.04457	1.43169
0.33947	1.04289	1.42972
0.34024	1.04124	1.42769
0.34101	1.03959	1.42562
0.34178	1.03792	1.4235
0.34255	1.03621	1.42135
0.34331	1.03444	1.41915
0.34408	1.03258	1.41693
0.34485	1.03061	1.41469
0.34562	1.02852	1.41242
0.34639	1.02626	1.41013
0.34716	1.02383	1.40783
0.34793	1.02121	1.40552
0.3487	1.01836	1.40321
0.34947	1.01527	1.40089
0.35024	1.01192	1.39858
0.35101	1.00828	1.39627
0.35177	1.00433	1.39398
0.35254	1.00006	1.39171
0.35331	0.99548	1.38948
0.35408	0.99058	1.38732
0.35485	0.98537	1.38523
0.35562	0.97983	1.38323
0.35639	0.97399	1.38135
0.35716	0.96783	1.3796
0.35792	0.96136	1.37799
0.35869	0.95457	1.37654
0.35946	0.94747	1.37527
0.36023	0.94007	1.3742
0.361	0.93234	1.37334
0.36177	0.92431	1.37272
0.36253	0.91597	1.37234
0.3633	0.90732	1.37223
0.36407	0.89835	1.37241
0.36484	0.88909	1.37289
0.36561	0.87951	1.37368
0.36638	0.86962	1.37481
0.36714	0.85942	1.37628
0.36791	0.84892	1.37813
0.36868	0.83811	1.38036
0.36945	0.82699	1.383
0.37022	0.81556	1.38605
0.37099	0.80382	1.38954
0.37176	0.79181	1.39344
0.37252	0.77955	1.39775
0.37329	0.76708	1.40245
0.37406	0.75442	1.40752
0.37483	0.74162	1.41295
0.3756	0.72869	1.41873
0.37637	0.71567	1.42483
0.37713	0.7026	1.43125
0.3779	0.68949	1.43798
0.37867	0.67639	1.44498
0.37944	0.66333	1.45226
0.38021	0.65034	1.4598
0.38097	0.63744	1.46758
0.38174	0.62468	1.4756
0.38251	0.61208	1.48383
0.38328	0.59968	1.49226
0.38405	0.58751	1.50088
0.38482	0.5756	1.50968
0.38558	0.56398	1.51863
0.38635	0.55269	1.52773
0.38712	0.54177	1.53697
0.38789	0.53123	1.54631
0.38866	0.52111	1.55576
0.38942	0.51145	1.5653
0.39019	0.50228	1.57492
0.39096	0.49358	1.58461
0.39173	0.48532	1.59436
0.3925	0.47751	1.60417
0.39326	0.47011	1.61404
0.39403	0.4631	1.62396
0.3948	0.45647	1.63393
0.39557	0.4502	1.64395
0.39634	0.44427	1.65399
0.3971	0.43866	1.66407
0.39787	0.43336	1.67417
0.39864	0.42833	1.68429
0.39941	0.42358	1.69443
0.40018	0.41907	1.70458
0.40094	0.41478	1.71473
0.40171	0.41071	1.72488
0.40248	0.40682	1.73503
0.40325	0.4031	1.74516
0.40401	0.39954	1.75528
0.40478	0.3961	1.76537
0.40555	0.39279	1.77545
0.40632	0.38955	1.78549
0.40709	0.3864	1.79549
0.40786	0.3833	1.80545
0.40862	0.38024	1.81537
0.40939	0.37719	1.82523
0.41016	0.37414	1.83503
0.41093	0.37106	1.84477
0.4117	0.36796	1.85444
0.41246	0.36482	1.86405
0.41323	0.36166	1.87359
0.414	0.35847	1.88308
0.41476	0.35527	1.89252
0.41553	0.35204	1.9019
0.4163	0.34881	1.91123
0.41707	0.34556	1.92051
0.41784	0.3423	1.92976
0.4186	0.33904	1.93896
0.41937	0.33578	1.94811
0.42014	0.33252	1.95723
0.42091	0.32927	1.96631
0.42168	0.32602	1.97536
0.42244	0.32278	1.98439
0.42321	0.31956	1.99338
0.42398	0.31636	2.00234
0.42475	0.31317	2.01129
0.42551	0.31001	2.02022
0.42628	0.30688	2.02914
0.42705	0.30377	2.03803
0.42782	0.30071	2.04691
0.42858	0.29767	2.05579
0.42935	0.29468	2.06466
0.43012	0.29173	2.07352
0.43089	0.28882	2.08239
0.43166	0.28597	2.09125
0.43242	0.28317	2.10012
0.43319	0.28042	2.109
0.43396	0.27773	2.11788
0.43473	0.27511	2.12677
0.4355	0.27255	2.13568
0.43626	0.27006	2.14461
0.43703	0.26763	2.15354
0.4378	0.26528	2.1625
0.43857	0.263	2.17148
0.43933	0.26077	2.18046
0.4401	0.25862	2.18946
0.44087	0.25653	2.19846
0.44164	0.25449	2.20747
0.4424	0.25252	2.21649
0.44317	0.25058	2.22551
0.44394	0.24871	2.23453
0.44471	0.24689	2.24355
0.44547	0.24512	2.25257
0.44624	0.24339	2.26158
0.44701	0.2417	2.27058
0.44778	0.24005	2.27958
0.44855	0.23844	2.28856
0.44931	0.23687	2.29753
0.45008	0.23533	2.30648
0.45085	0.23383	2.31541
0.45162	0.23235	2.32433
0.45239	0.2309	2.33322
0.45315	0.22948	2.34209
0.45392	0.22808	2.35093
0.45469	0.2267	2.35974
0.45546	0.22534	2.36852
0.45623	0.22399	2.37726
0.45699	0.22266	2.38597
0.45776	0.22134	2.39464
0.45853	0.22003	2.40327
0.45929	0.21872	2.41186
0.46006	0.21742	2.42041
0.46083	0.21612	2.42891
0.4616	0.21482	2.43737
0.46237	0.21352	2.44577
0.46313	0.21222	2.45413
0.4639	0.2109	2.46243
0.46467	0.20959	2.47068
0.46544	0.20827	2.47888
0.4662	0.20695	2.48703
0.46697	0.20562	2.49512
0.46774	0.2043	2.50318
0.46851	0.20297	2.51117
0.46928	0.20165	2.51913
0.47004	0.20032	2.52705
0.47081	0.199	2.53492
0.47158	0.19769	2.54275
0.47235	0.19637	2.55053
0.47312	0.19507	2.55828
0.47388	0.19378	2.56598
0.47465	0.19249	2.57364
0.47542	0.19121	2.58127
0.47619	0.18995	2.58886
0.47695	0.18869	2.59642
0.47772	0.18745	2.60394
0.47849	0.18622	2.61143
0.47926	0.185	2.6189
0.48003	0.18381	2.62633
0.4808	0.18263	2.63372
0.48156	0.18146	2.64109
0.48233	0.18032	2.64843
0.4831	0.1792	2.65574
0.48386	0.17809	2.66302
0.48463	0.17701	2.67028
0.4854	0.17595	2.67752
0.48617	0.17492	2.68474
0.48693	0.17391	2.69194
0.4877	0.17294	2.69912
0.48847	0.17198	2.70628
0.48924	0.17106	2.71342
0.49001	0.17016	2.72054
0.49077	0.1693	2.72765
0.49154	0.16847	2.73474
0.49231	0.16767	2.74181
0.49307	0.1669	2.74887
0.49384	0.16617	2.75593
0.49461	0.16548	2.76296
0.49537	0.16482	2.77
0.49614	0.1642	2.77703
0.49691	0.16362	2.78404
0.49767	0.16308	2.79105
0.49844	0.16258	2.79806
0.49921	0.1621	2.80505
0.49998	0.16167	2.81204
0.50074	0.16127	2.81901
0.50151	0.1609	2.82598
0.50228	0.16056	2.83295
0.50304	0.16026	2.8399
0.50381	0.15999	2.84684
0.50458	0.15974	2.85379
0.50534	0.15953	2.86071
0.50611	0.15934	2.86763
0.50688	0.15918	2.87455
0.50764	0.15905	2.88145
0.50841	0.15894	2.88835
0.50918	0.15885	2.89524
0.50994	0.1588	2.90212
0.51071	0.15876	2.909
0.51148	0.15875	2.91585
0.51224	0.15875	2.92271
0.51301	0.15878	2.92956
0.51378	0.15883	2.93639
0.51454	0.15889	2.94321
0.51531	0.15897	2.95003
0.51608	0.15907	2.95684
0.51684	0.15919	2.96364
0.51761	0.15932	2.97043
0.51838	0.15946	2.97722
0.51914	0.15962	2.984
0.51991	0.15979	2.99076
0.52067	0.15998	2.99752
0.52144	0.16017	3.00427
0.52221	0.16037	3.01101
0.52297	0.16059	3.01774
0.52374	0.16081	3.02446
0.52451	0.16104	3.03118
0.52527	0.16127	3.03788
0.52604	0.16151	3.04458
0.52681	0.16176	3.05127
0.52757	0.16201	3.05794
0.52834	0.16226	3.06461
0.52911	0.16252	3.07127
0.52987	0.16278	3.07792
0.53064	0.16303	3.08456
0.5314	0.16329	3.09118
0.53217	0.16354	3.0978
0.53294	0.1638	3.10441
0.5337	0.16406	3.11101
0.53447	0.16432	3.1176
0.53523	0.16458	3.12419
0.536	0.16484	3.13076
0.53676	0.1651	3.13733
0.53753	0.16536	3.14388
0.5383	0.16562	3.15044
0.53906	0.16588	3.15698
0.53983	0.16615	3.16351
0.5406	0.16642	3.17004
0.54136	0.16669	3.17656
0.54213	0.16695	3.18308
0.54289	0.16722	3.18958
0.54366	0.16749	3.19608
0.54443	0.16776	3.20257
0.54519	0.16803	3.20906
0.54596	0.16831	3.21553
0.54672	0.16859	3.222
0.54749	0.16886	3.22845
0.54825	0.16915	3.23491
0.54902	0.16943	3.24136
0.54978	0.16971	3.2478
0.55055	0.16999	3.25424
0.55132	0.17028	3.26069
0.55208	0.17057	3.26711
0.55285	0.17087	3.27354
0.55362	0.17116	3.27996
0.55438	0.17146	3.28637
0.55515	0.17176	3.29278
0.55591	0.17206	3.29918
0.55668	0.17237	3.30558
0.55744	0.17268	3.31196
0.55821	0.17299	3.31835
0.55898	0.1733	3.32473
0.55974	0.17362	3.33111
0.56051	0.17394	3.33749
0.56127	0.17427	3.34387
0.56204	0.17459	3.35023
0.5628	0.17492	3.35659
0.56357	0.17526	3.36295
0.56434	0.17559	3.36931
0.5651	0.17593	3.37566
0.56587	0.17628	3.38201
0.56663	0.17662	3.38835
0.5674	0.17697	3.39469
0.56816	0.17733	3.40103
0.56893	0.17769	3.40737
0.56969	0.17805	3.4137
0.57046	0.17842	3.42004
0.57122	0.17879	3.42638
0.57199	0.17916	3.43271
0.57276	0.17954	3.43904
0.57352	0.17992	3.44536
0.57429	0.18031	3.4517
0.57505	0.1807	3.45802
0.57582	0.18109	3.46434
0.57659	0.18149	3.47066
0.57735	0.18188	3.47698
0.57812	0.18228	3.48329
0.57888	0.18269	3.48959
0.57965	0.18309	3.4959
0.58041	0.18349	3.50222
0.58118	0.1839	3.50852
0.58194	0.18431	3.51484
0.58271	0.18473	3.52115
0.58348	0.18514	3.52746
0.58424	0.18556	3.53376
0.58501	0.18597	3.54006
0.58577	0.18639	3.54636
0.58654	0.18681	3.55266
0.5873	0.18723	3.55896
0.58807	0.18765	3.56526
0.58883	0.18807	3.57155
0.5896	0.18849	3.57785
0.59037	0.18891	3.58415
0.59113	0.18934	3.59044
0.5919	0.18975	3.59673
0.59266	0.19017	3.60302
0.59343	0.1906	3.60931
0.59419	0.19102	3.6156
0.59496	0.19143	3.62189
0.59572	0.19185	3.62818
0.59649	0.19227	3.63448
0.59725	0.19269	3.64077
0.59802	0.1931	3.64705
0.59879	0.19352	3.65335
0.59955	0.19393	3.65964
0.60032	0.19434	3.66592
0.60108	0.19475	3.67222
0.60185	0.19516	3.67851
0.60261	0.19556	3.6848
0.60338	0.19596	3.69108
0.60414	0.19637	3.69737
0.60491	0.19676	3.70366
0.60567	0.19716	3.70995
0.60644	0.19755	3.71623
0.6072	0.19793	3.72252
0.60797	0.19832	3.72881
0.60873	0.1987	3.7351
0.6095	0.19908	3.74139
0.61027	0.19946	3.74769
0.61103	0.19983	3.75398
0.6118	0.2002	3.76028
0.61256	0.20056	3.76658
0.61333	0.20092	3.77288
0.6141	0.20128	3.77918
0.61486	0.20162	3.78548
0.61563	0.20197	3.79177
0.61639	0.20231	3.79807
0.61716	0.20265	3.80437
0.61792	0.20298	3.81067
0.61869	0.20331	3.81697
0.61945	0.20362	3.82328
0.62022	0.20394	3.82959
0.62098	0.20425	3.8359
0.62175	0.20455	3.84221
0.62252	0.20485	3.84852
0.62328	0.20515	3.85482
0.62405	0.20543	3.86113
0.62481	0.20572	3.86744
0.62558	0.20599	3.87375
0.62634	0.20628	3.88006
0.62711	0.20654	3.88637
0.62787	0.20681	3.89267
0.62864	0.20708	3.89899
0.6294	0.20734	3.9053
0.63017	0.2076	3.9116
0.63093	0.20786	3.91791
0.6317	0.20811	3.92422
0.63247	0.20837	3.93052
0.63323	0.20861	3.93682
0.634	0.20886	3.94313
0.63476	0.20911	3.94942
0.63553	0.20935	3.95571
0.63629	0.20959	3.96201
0.63706	0.20983	3.9683
0.63782	0.21007	3.97459
0.63859	0.21031	3.98087
0.63936	0.21055	3.98715
0.64012	0.21079	3.99343
0.64089	0.21102	3.99971
0.64165	0.21126	4.00598
0.64242	0.21149	4.01224
0.64318	0.21173	4.01851
0.64395	0.21197	4.02476
0.64472	0.21221	4.03101
0.64548	0.21244	4.03727
0.64625	0.21269	4.04351
0.64701	0.21293	4.04975
0.64778	0.21317	4.05599
0.64855	0.21341	4.06222
0.64931	0.21365	4.06844
0.65008	0.21391	4.07465
0.65084	0.21415	4.08087
0.65161	0.2144	4.08706
0.65238	0.21466	4.09326
0.65314	0.21492	4.09945
0.65391	0.21518	4.10563
0.65467	0.21545	4.11181
0.65544	0.21571	4.11798
0.6562	0.21598	4.12414
0.65697	0.21626	4.1303
0.65774	0.21653	4.13645
0.6585	0.21681	4.14258
0.65927	0.2171	4.1487
0.66003	0.21739	4.15482
0.6608	0.21769	4.16093
0.66156	0.21799	4.16704
0.66233	0.2183	4.17314
0.6631	0.2186	4.17923
0.66386	0.21892	4.18531
0.66463	0.21924	4.19138
0.66539	0.21957	4.19744
0.66616	0.21991	4.20348
0.66692	0.22025	4.20951
0.66769	0.22059	4.21553
0.66845	0.22094	4.22154
0.66922	0.22131	4.22755
0.66999	0.22168	4.23355
0.67075	0.22205	4.23955
0.67152	0.22243	4.24553
0.67229	0.22282	4.25149
0.67305	0.22322	4.25744
0.67382	0.22363	4.26338
0.67458	0.22404	4.26931
0.67535	0.22446	4.27523
0.67612	0.22489	4.28113
0.67688	0.22533	4.28702
0.67765	0.22578	4.2929
0.67841	0.22623	4.29877
0.67918	0.22669	4.30463
0.67994	0.22715	4.31048